Source File Name:	Analyzer
Signal:	FFT - Vib Velocity - Magnitude

Frequency	Magnitude
[ Hz ]	[ m/s ]
20	0.0008093509
20.625	0.0006945539
21.25	0.0006018535
21.875	0.0005271249
22.5	0.0004729537
23.125	0.0004192246
23.75	0.0003971068
24.375	0.000369075
25	0.0003387731
25.625	0.0003104033
26.25	0.0002917438
26.875	0.0002791902
27.5	0.0002963702
28.125	0.0003310941
28.75	0.0003805453
29.375	0.0004310914
30	0.0004813445
30.625	0.0005232887
31.25	0.0005514126
31.875	0.0005577407
32.5	0.0005545766
33.125	0.0005352357
33.75	0.0005186965
34.375	0.000506274
35	0.0004957939
35.625	0.0004824934
36.25	0.0004790417
36.875	0.000471163
37.5	0.0004674007
38.125	0.0004536006
38.75	0.0004487436
39.375	0.0004434939
40	0.0004334434
40.625	0.0004303434
41.25	0.0004275645
41.875	0.0004255019
42.5	0.0004293634
43.125	0.0004345223
43.75	0.000439016
44.375	0.0004397293
45	0.0004422258
45.625	0.0004476498
46.25	0.000442725
46.875	0.0004380671
47.5	0.0004339175
48.125	0.0004309443
48.75	0.0004255121
49.375	0.0004269163
50	0.00042598
50.625	0.0004268364
51.25	0.0004258289
51.875	0.0004309863
52.5	0.0004365963
53.125	0.0004336862
53.75	0.0004367648
54.375	0.0004415392
55	0.0004358897
55.625	0.0004335096
56.25	0.0004407124
56.875	0.0004346876
57.5	0.0004322773
58.125	0.0004323926
58.75	0.000431967
59.375	0.0004376507
60	0.0004437105
60.625	0.0004336974
61.25	0.0004357333
61.875	0.0004404622
62.5	0.0004394628
63.125	0.0004390406
63.75	0.0004358635
64.375	0.000436682
65	0.0004364851
65.625	0.0004374232
66.25	0.0004364836
66.875	0.0004387329
67.5	0.0004420895
68.125	0.0004438489
68.75	0.000442645
69.375	0.0004411211
70	0.0004404015
70.625	0.0004387714
71.25	0.0004363269
71.875	0.0004311061
72.5	0.0004327649
73.125	0.0004312994
73.75	0.0004285237
74.375	0.0004306597
75	0.0004287513
75.625	0.0004298028
76.25	0.0004321118
76.875	0.0004351307
77.5	0.0004372571
78.125	0.0004382996
78.75	0.0004384839
79.375	0.0004364876
80	0.0004349219
80.625	0.0004325872
81.25	0.0004322798
81.875	0.000432765
82.5	0.0004349265
83.125	0.0004355071
83.75	0.0004387324
84.375	0.0004419271
85	0.0004443377
85.625	0.0004486143
86.25	0.0004471734
86.875	0.00044955
87.5	0.0004554118
88.125	0.0004571001
88.75	0.000456412
89.375	0.00045731
90	0.0004580862
90.625	0.0004662937
91.25	0.000469531
91.875	0.0004680168
92.5	0.0004730114
93.125	0.0004740503
93.75	0.0004790387
94.375	0.0004779396
95	0.0004804034
95.625	0.0004813701
96.25	0.0004848306
96.875	0.0004859676
97.5	0.0004858533
98.125	0.0004889567
98.75	0.0004888588
99.375	0.0004881157
100	0.000493961
100.625	0.0004948387
101.25	0.0004996067
101.875	0.000498149
102.5	0.0004958598
103.125	0.0004949506
103.75	0.0004976008
104.375	0.0004933825
105	0.0004894127
105.625	0.0004854309
106.25	0.0004849346
106.875	0.0004835826
107.5	0.0004843189
108.125	0.0004821186
108.75	0.0004816681
109.375	0.0004805988
110	0.0004795409
110.625	0.0004780326
111.25	0.0004741966
111.875	0.0004702281
112.5	0.000465001
113.125	0.0004589379
113.75	0.0004530427
114.375	0.0004487182
115	0.000445669
115.625	0.0004453226
116.25	0.0004440468
116.875	0.0004357603
117.5	0.000435007
118.125	0.0004304435
118.75	0.0004280861
119.375	0.000424968
120	0.0004180616
120.625	0.0004178406
121.25	0.0004127403
121.875	0.0004067753
122.5	0.0004046412
123.125	0.0004026206
123.75	0.0004017533
124.375	0.0004056931
125	0.0004056118
125.625	0.0004061792
126.25	0.0004090659
126.875	0.0004037523
127.5	0.000406595
128.125	0.000408449
128.75	0.0004124972
129.375	0.0004126966
130	0.0004125844
130.625	0.0004179942
131.25	0.0004275608
131.875	0.0004368607
132.5	0.0004459022
133.125	0.0004561571
133.75	0.0004659342
134.375	0.000478219
135	0.0004921548
135.625	0.0004988235
136.25	0.0005066763
136.875	0.0005224181
137.5	0.0005355597
138.125	0.0005477091
138.75	0.000565938
139.375	0.0005816492
140	0.0006025026
140.625	0.0006198868
141.25	0.0006414582
141.875	0.000662226
142.5	0.0006777536
143.125	0.000699288
143.75	0.0007195888
144.375	0.0007359284
145	0.0007477897
145.625	0.000767032
146.25	0.0007815458
146.875	0.0007981007
147.5	0.0008097337
148.125	0.0008222533
148.75	0.0008270404
149.375	0.0008305237
150	0.0008291467
150.625	0.0008241052
151.25	0.0008078685
151.875	0.0007868042
152.5	0.000758183
153.125	0.0007229671
153.75	0.0006835354
154.375	0.00064266
155	0.0005945618
155.625	0.0005566582
156.25	0.0005177762
156.875	0.0004800796
157.5	0.0004452871
158.125	0.0004199619
158.75	0.0003897728
159.375	0.0003694181
160	0.0003504761
160.625	0.0003347452
161.25	0.0003133099
161.875	0.0002994914
162.5	0.0002796875
163.125	0.000261914
163.75	0.0002455627
164.375	0.0002259309
165	0.0002036404
165.625	0.0001817608
166.25	0.0001591346
166.875	0.0001384829
167.5	0.000113371
168.125	8.813311e-5
168.75	6.302606e-5
169.375	3.82012e-5
170	3.142904e-5
170.625	5.308538e-5
171.25	7.405052e-5
171.875	0.0001038925
172.5	0.0001253475
173.125	0.0001495791
173.75	0.0001698097
174.375	0.0001942309
175	0.0002058497
175.625	0.000220336
176.25	0.0002288823
176.875	0.0002410006
177.5	0.0002412786
178.125	0.0002490638
178.75	0.0002498438
179.375	0.000252307
180	0.0002537458
180.625	0.0002590931
181.25	0.000260432
181.875	0.0002683709
182.5	0.0002677297
183.125	0.0002781017
183.75	0.000278293
184.375	0.0002892099
185	0.00029198
185.625	0.0002973686
186.25	0.0003000417
186.875	0.0003018711
187.5	0.0003043788
188.125	0.0003107472
188.75	0.0003142676
189.375	0.0003211311
190	0.0003251923
190.625	0.0003352839
191.25	0.000340987
191.875	0.0003479038
192.5	0.0003475947
193.125	0.000353211
193.75	0.0003519414
194.375	0.0003536482
195	0.0003500122
195.625	0.0003484197
196.25	0.0003396227
196.875	0.0003380601
197.5	0.0003348291
198.125	0.0003301075
198.75	0.0003271619
199.375	0.0003228896
200	0.0003171852
200.625	0.0003162441
201.25	0.0003084812
201.875	0.0003015804
202.5	0.0002940916
203.125	0.000286028
203.75	0.0002785395
204.375	0.00027285
205	0.0002656392
205.625	0.000264134
206.25	0.0002551031
206.875	0.0002511874
207.5	0.0002432956
208.125	0.0002426319
208.75	0.0002403687
209.375	0.0002340671
210	0.0002281403
210.625	0.0002224384
211.25	0.000219725
211.875	0.0002211882
212.5	0.0002146483
213.125	0.0002151465
213.75	0.0002167138
214.375	0.000221948
215	0.0002217115
215.625	0.0002285872
216.25	0.0002275216
216.875	0.0002343082
217.5	0.0002323623
218.125	0.0002390617
218.75	0.0002414295
219.375	0.0002451423
220	0.0002497725
220.625	0.0002574038
221.25	0.0002644236
221.875	0.0002723552
222.5	0.000274007
223.125	0.0002842188
223.75	0.0002864176
224.375	0.0002973866
225	0.0003008618
225.625	0.0003077937
226.25	0.0003115693
226.875	0.000321883
227.5	0.0003250789
228.125	0.0003358973
228.75	0.0003407448
229.375	0.0003511017
230	0.0003553172
230.625	0.000359995
231.25	0.0003645686
231.875	0.0003715355
232.5	0.0003715883
233.125	0.0003763083
233.75	0.000375143
234.375	0.000382946
235	0.0003840682
235.625	0.0003863844
236.25	0.0003861552
236.875	0.000389547
237.5	0.0003886478
238.125	0.0003920809
238.75	0.0003872789
239.375	0.0003910239
240	0.0003884546
240.625	0.0003882825
241.25	0.0003850048
241.875	0.0003844941
242.5	0.0003785257
243.125	0.0003755133
243.75	0.0003728961
244.375	0.0003769889
245	0.0003767119
245.625	0.000378902
246.25	0.0003758338
246.875	0.0003792013
247.5	0.0003788334
248.125	0.0003834246
248.75	0.0003843915
249.375	0.0003902146
250	0.0003874002
250.625	0.0003975791
251.25	0.0003970741
251.875	0.0004021611
252.5	0.0004068585
253.125	0.000409907
253.75	0.0004113123
254.375	0.0004179792
255	0.0004174312
255.625	0.0004213242
256.25	0.0004195073
256.875	0.000424397
257.5	0.0004267031
258.125	0.0004319525
258.75	0.0004297172
259.375	0.0004373721
260	0.0004366489
260.625	0.0004423723
261.25	0.0004408744
261.875	0.0004449947
262.5	0.0004452606
263.125	0.0004522111
263.75	0.000450651
264.375	0.0004522691
265	0.0004524825
265.625	0.0004524426
266.25	0.0004493502
266.875	0.000450948
267.5	0.000445424
268.125	0.0004463571
268.75	0.0004414676
269.375	0.0004413604
270	0.0004362814
270.625	0.0004351205
271.25	0.0004284673
271.875	0.0004292347
272.5	0.0004207555
273.125	0.0004189932
273.75	0.0004098572
274.375	0.0004037415
275	0.0003984826
275.625	0.0003912601
276.25	0.0003843057
276.875	0.0003772684
277.5	0.0003637804
278.125	0.0003611776
278.75	0.0003499641
279.375	0.0003435842
280	0.0003329463
280.625	0.0003265436
281.25	0.0003150065
281.875	0.0003087754
282.5	0.0002987887
283.125	0.0002933616
283.75	0.0002823873
284.375	0.0002767603
285	0.0002664601
285.625	0.0002593979
286.25	0.0002483006
286.875	0.0002452697
287.5	0.0002383892
288.125	0.0002309517
288.75	0.0002182705
289.375	0.0002166862
290	0.0002085494
290.625	0.0002078202
291.25	0.0002020633
291.875	0.0001971554
292.5	0.0001937339
293.125	0.0001967642
293.75	0.0001940342
294.375	0.0001939374
295	0.0001883318
295.625	0.0001939593
296.25	0.000194934
296.875	0.0001945999
297.5	0.0001951814
298.125	0.0001951441
298.75	0.0001957295
299.375	0.0002003895
300	0.000199584
300.625	0.0002022682
301.25	0.000205721
301.875	0.0002109835
302.5	0.0002146481
303.125	0.0002176707
303.75	0.0002211578
304.375	0.0002233787
305	0.0002214549
305.625	0.0002262094
306.25	0.0002275692
306.875	0.0002284362
307.5	0.0002305245
308.125	0.0002318505
308.75	0.0002366429
309.375	0.0002377228
310	0.0002401522
310.625	0.000241823
311.25	0.000240546
311.875	0.000243085
312.5	0.0002444087
313.125	0.0002413154
313.75	0.0002384265
314.375	0.0002374591
315	0.0002345808
315.625	0.0002350407
316.25	0.0002335653
316.875	0.000234811
317.5	0.000231294
318.125	0.0002251557
318.75	0.0002209779
319.375	0.0002134129
320	0.0002073869
320.625	0.0002020876
321.25	0.0001939164
321.875	0.0001882708
322.5	0.0001812427
323.125	0.0001772643
323.75	0.0001701761
324.375	0.0001617957
325	0.0001535381
325.625	0.000150247
326.25	0.0001427973
326.875	0.000135944
327.5	0.0001246067
328.125	0.0001174231
328.75	0.0001043774
329.375	9.844601e-5
330	8.877778e-5
330.625	7.777609e-5
331.25	7.043337e-5
331.875	6.162352e-5
332.5	5.485169e-5
333.125	5.14942e-5
333.75	4.099205e-5
334.375	3.638896e-5
335	2.396148e-5
335.625	2.098179e-5
336.25	1.629135e-5
336.875	1.903716e-5
337.5	2.329249e-5
338.125	2.579894e-5
338.75	3.052917e-5
339.375	3.623348e-5
340	3.914728e-5
340.625	4.672357e-5
341.25	5.131721e-5
341.875	6.08949e-5
342.5	6.691723e-5
343.125	7.305348e-5
343.75	8.02085e-5
344.375	8.435591e-5
345	8.978993e-5
345.625	9.195587e-5
346.25	9.463434e-5
346.875	9.68773e-5
347.5	0.0001007121
348.125	0.0001053694
348.75	0.0001083134
349.375	0.0001134154
350	0.0001201864
350.625	0.0001259299
351.25	0.000129457
351.875	0.0001347986
352.5	0.0001389104
353.125	0.0001462301
353.75	0.0001482298
354.375	0.0001507355
355	0.000153159
355.625	0.0001558205
356.25	0.0001598208
356.875	0.0001608056
357.5	0.0001664305
358.125	0.0001769313
358.75	0.0001790091
359.375	0.0001834641
360	0.0001874402
360.625	0.0001895941
361.25	0.0001952302
361.875	0.0002005452
362.5	0.0002004089
363.125	0.0002067336
363.75	0.0002081386
364.375	0.0002125761
365	0.0002160172
365.625	0.0002210183
366.25	0.0002245121
366.875	0.0002298865
367.5	0.0002312694
368.125	0.0002336758
368.75	0.0002324134
369.375	0.0002325805
370	0.0002313331
370.625	0.000233796
371.25	0.00023398
371.875	0.0002359211
372.5	0.000235863
373.125	0.000238027
373.75	0.0002364573
374.375	0.0002388876
375	0.0002321653
375.625	0.0002362259
376.25	0.0002343698
376.875	0.000230667
377.5	0.0002253904
378.125	0.0002215007
378.75	0.0002168622
379.375	0.0002147124
380	0.0002117942
380.625	0.0002136629
381.25	0.0002077899
381.875	0.0002090819
382.5	0.0002056295
383.125	0.0002039042
383.75	0.0001990274
384.375	0.0001972061
385	0.0001904764
385.625	0.0001920243
386.25	0.0001867376
386.875	0.0001867991
387.5	0.000186032
388.125	0.0001878754
388.75	0.0001899811
389.375	0.0001946206
390	0.0001912537
390.625	0.0001974385
391.25	0.0001984805
391.875	0.0002055462
392.5	0.0002078417
393.125	0.0002123658
393.75	0.0002181205
394.375	0.0002276243
395	0.0002331442
395.625	0.0002445746
396.25	0.0002498575
396.875	0.0002588432
397.5	0.0002612013
398.125	0.0002706912
398.75	0.0002760725
399.375	0.0002841145
400	0.0002910886
400.625	0.0003008299
401.25	0.0003072425
401.875	0.000319403
402.5	0.0003255331
403.125	0.0003328883
403.75	0.0003414096
404.375	0.0003489711
405	0.0003530176
405.625	0.0003592366
406.25	0.0003588874
406.875	0.0003658421
407.5	0.0003640362
408.125	0.0003697215
408.75	0.0003709616
409.375	0.0003762116
410	0.0003782049
410.625	0.0003808679
411.25	0.0003826414
411.875	0.0003857075
412.5	0.0003870722
413.125	0.0003862477
413.75	0.0003790039
414.375	0.0003781819
415	0.0003758039
415.625	0.0003733827
416.25	0.0003665849
416.875	0.0003650457
417.5	0.0003549627
418.125	0.0003534022
418.75	0.00034742
419.375	0.0003452896
420	0.0003366989
420.625	0.0003267799
421.25	0.000318642
421.875	0.0003099903
422.5	0.0002993784
423.125	0.0002903466
423.75	0.0002779177
424.375	0.0002719832
425	0.0002622499
425.625	0.0002557399
426.25	0.0002440256
426.875	0.0002331486
427.5	0.0002234507
428.125	0.0002137168
428.75	0.0001962867
429.375	0.0001874675
430	0.0001742063
430.625	0.0001622752
431.25	0.0001497819
431.875	0.0001424914
432.5	0.0001345804
433.125	0.0001293502
433.75	0.000123263
434.375	0.0001189888
435	0.0001162304
435.625	0.0001130033
436.25	0.0001088137
436.875	0.0001038967
437.5	0.000104213
438.125	0.0001078717
438.75	0.0001119933
439.375	0.0001178634
440	0.0001255348
440.625	0.0001335167
441.25	0.0001402515
441.875	0.0001473106
442.5	0.0001568209
443.125	0.0001606582
443.75	0.000170955
444.375	0.0001755393
445	0.0001826182
445.625	0.0001884606
446.25	0.0001968928
446.875	0.0002010629
447.5	0.0002101986
448.125	0.0002153139
448.75	0.0002226874
449.375	0.0002269444
450	0.0002286942
450.625	0.0002338188
451.25	0.0002366007
451.875	0.00023839
452.5	0.0002438256
453.125	0.0002426696
453.75	0.0002491231
454.375	0.0002485405
455	0.000253056
455.625	0.0002557509
456.25	0.000256114
456.875	0.0002554437
457.5	0.000255011
458.125	0.0002534793
458.75	0.0002524588
459.375	0.0002481455
460	0.0002434809
460.625	0.000241041
461.25	0.000239114
461.875	0.0002349001
462.5	0.0002340431
463.125	0.0002320501
463.75	0.0002302949
464.375	0.0002261864
465	0.0002253292
465.625	0.0002201855
466.25	0.0002156988
466.875	0.0002107838
467.5	0.0002040013
468.125	0.0001983798
468.75	0.0001914063
469.375	0.0001846317
470	0.0001809779
470.625	0.0001726471
471.25	0.0001696
471.875	0.0001651284
472.5	0.0001578908
473.125	0.0001552124
473.75	0.0001498761
474.375	0.0001457507
475	0.0001387872
475.625	0.0001329383
476.25	0.0001279117
476.875	0.0001185764
477.5	0.0001153209
478.125	0.0001095632
478.75	0.0001072422
479.375	0.0001018154
480	9.653805e-5
480.625	9.228719e-5
481.25	8.68354e-5
481.875	8.338236e-5
482.5	7.88597e-5
483.125	7.523324e-5
483.75	7.070562e-5
484.375	6.821689e-5
485	6.11685e-5
485.625	5.785565e-5
486.25	5.976317e-5
486.875	5.604977e-5
487.5	5.622739e-5
488.125	5.129083e-5
488.75	5.23137e-5
489.375	5.198233e-5
490	4.955454e-5
490.625	4.845998e-5
491.25	4.749839e-5
491.875	4.414609e-5
492.5	4.517362e-5
493.125	4.280217e-5
493.75	4.324887e-5
494.375	4.380643e-5
495	4.518413e-5
495.625	4.633488e-5
496.25	4.869879e-5
496.875	4.968451e-5
497.5	5.379254e-5
498.125	4.873886e-5
498.75	5.01736e-5
499.375	5.069925e-5
500	5.224243e-5
500.625	4.907967e-5
501.25	4.99545e-5
501.875	5.113172e-5
502.5	5.580035e-5
503.125	5.516303e-5
503.75	5.771893e-5
504.375	5.859431e-5
505	5.896256e-5
505.625	6.044231e-5
506.25	6.183403e-5
506.875	6.150265e-5
507.5	6.399033e-5
508.125	6.191617e-5
508.75	6.411951e-5
509.375	6.139215e-5
510	6.728493e-5
510.625	7.000023e-5
511.25	7.160152e-5
511.875	7.205891e-5
512.5	7.457339e-5
513.125	7.576655e-5
513.75	7.946043e-5
514.375	7.757784e-5
515	8.041503e-5
515.625	8.166503e-5
516.25	8.284287e-5
516.875	8.747522e-5
517.5	8.95693e-5
518.125	8.843753e-5
518.75	9.414372e-5
519.375	9.690309e-5
520	0.0001039592
520.625	0.0001045414
521.25	0.000108371
521.875	0.0001071384
522.5	0.0001095632
523.125	0.0001099021
523.75	0.0001098654
524.375	0.0001098942
525	0.0001128927
525.625	0.0001160384
526.25	0.0001210815
526.875	0.0001230499
527.5	0.0001273363
528.125	0.0001288405
528.75	0.0001313576
529.375	0.0001333304
530	0.0001390619
530.625	0.0001350515
531.25	0.0001351739
531.875	0.0001308714
532.5	0.0001329634
533.125	0.0001325277
533.75	0.0001329176
534.375	0.0001335674
535	0.0001356384
535.625	0.0001361828
536.25	0.0001405823
536.875	0.0001392232
537.5	0.0001404238
538.125	0.0001388952
538.75	0.0001361316
539.375	0.0001340483
540	0.0001330983
540.625	0.000128641
541.25	0.000128468
541.875	0.0001248996
542.5	0.0001253942
543.125	0.0001230689
543.75	0.0001267136
544.375	0.000124218
545	0.0001232596
545.625	0.0001226074
546.25	0.0001191056
546.875	0.0001162065
547.5	0.0001136418
548.125	0.0001068482
548.75	0.0001044747
549.375	9.850751e-5
550	9.630747e-5
550.625	9.63631e-5
551.25	9.373017e-5
551.875	9.35772e-5
552.5	9.374804e-5
553.125	9.348409e-5
553.75	9.169232e-5
554.375	9.075952e-5
555	9.22823e-5
555.625	8.669872e-5
556.25	8.171702e-5
556.875	7.798726e-5
557.5	7.3792e-5
558.125	7.213422e-5
558.75	6.708173e-5
559.375	6.407981e-5
560	6.138832e-5
560.625	6.117127e-5
561.25	6.304135e-5
561.875	6.738576e-5
562.5	6.760871e-5
563.125	6.866051e-5
563.75	6.518028e-5
564.375	6.998847e-5
565	6.692766e-5
565.625	6.656371e-5
566.25	6.172215e-5
566.875	6.188327e-5
567.5	5.954651e-5
568.125	5.862663e-5
568.75	5.955591e-5
569.375	5.895879e-5
570	5.635794e-5
570.625	6.001344e-5
571.25	6.258631e-5
571.875	6.796444e-5
572.5	6.987072e-5
573.125	7.290627e-5
573.75	7.588867e-5
574.375	7.772755e-5
575	7.79568e-5
575.625	7.759943e-5
576.25	7.91749e-5
576.875	7.904937e-5
577.5	8.158459e-5
578.125	8.408152e-5
578.75	8.495215e-5
579.375	8.896905e-5
580	9.299656e-5
580.625	9.619565e-5
581.25	0.0001017781
581.875	0.0001077046
582.5	0.0001097601
583.125	0.0001138895
583.75	0.000119615
584.375	0.000117917
585	0.0001200388
585.625	0.000116936
586.25	0.0001191775
586.875	0.0001166832
587.5	0.0001212937
588.125	0.0001247688
588.75	0.0001283659
589.375	0.0001336074
590	0.0001369719
590.625	0.0001403053
591.25	0.000145642
591.875	0.0001454623
592.5	0.0001497178
593.125	0.0001469883
593.75	0.0001472139
594.375	0.0001439097
595	0.0001404336
595.625	0.0001382737
596.25	0.0001392607
596.875	0.0001389346
597.5	0.0001420257
598.125	0.0001414814
598.75	0.0001482424
599.375	0.0001463874
600	0.0001463739
600.625	0.0001444406
601.25	0.0001423132
601.875	0.000137826
602.5	0.0001351457
603.125	0.0001300393
603.75	0.0001283059
604.375	0.0001231482
605	0.0001216138
605.625	0.0001189567
606.25	0.0001189902
606.875	0.0001177501
607.5	0.0001145596
608.125	0.0001141792
608.75	0.0001119962
609.375	0.0001055042
610	0.0001019065
610.625	9.349997e-5
611.25	8.887915e-5
611.875	8.2611e-5
612.5	7.957074e-5
613.125	7.73569e-5
613.75	7.349029e-5
614.375	6.887864e-5
615	6.770054e-5
615.625	6.631626e-5
616.25	6.562066e-5
616.875	6.246754e-5
617.5	5.828048e-5
618.125	5.528782e-5
618.75	4.924545e-5
619.375	4.71414e-5
620	4.036295e-5
620.625	3.624495e-5
621.25	3.196883e-5
621.875	2.990002e-5
622.5	2.865161e-5
623.125	2.870828e-5
623.75	2.766107e-5
624.375	2.729966e-5
625	2.528145e-5
625.625	3.03935e-5
626.25	3.00847e-5
626.875	3.111592e-5
627.5	3.233044e-5
628.125	3.209426e-5
628.75	3.00397e-5
629.375	2.90618e-5
630	2.764806e-5
630.625	2.904344e-5
631.25	2.569218e-5
631.875	2.777822e-5
632.5	2.453046e-5
633.125	2.653437e-5
633.75	2.525845e-5
634.375	2.588113e-5
635	2.909907e-5
635.625	2.780833e-5
636.25	2.629333e-5
636.875	2.756159e-5
637.5	2.452008e-5
638.125	2.547564e-5
638.75	1.863489e-5
639.375	1.723471e-5
640	1.71296e-5
640.625	1.955586e-5
641.25	1.993431e-5
641.875	1.849633e-5
642.5	1.580201e-5
643.125	1.495077e-5
643.75	1.372736e-5
644.375	1.413247e-5
645	9.359876e-6
645.625	7.153631e-6
646.25	3.229773e-6
646.875	2.403604e-6
647.5	3.155671e-6
648.125	5.589971e-6
648.75	9.683259e-6
649.375	1.19383e-5
650	1.22504e-5
650.625	1.027313e-5
651.25	8.432948e-6
651.875	1.244339e-5
652.5	1.342808e-5
653.125	1.509722e-5
653.75	2.072313e-5
654.375	2.230071e-5
655	2.865924e-5
655.625	3.053286e-5
656.25	3.790803e-5
